%\*l[nm]	Flux relative to continuum flux
648.25159   1.01164340
648.27600   1.01138720
648.30029   0.98810417
648.32458   0.98462009
648.34900   0.98463432
648.37329   0.97359717
648.39758   0.99182007
648.42194   0.99919479
648.44617   1.00135950
648.47052   0.99145593
648.49475   1.00869350
648.51910   1.08465560
648.54333   1.01462930
648.56763   1.01128290
648.59192   1.00974600
648.61615   1.01253720
648.64038   1.01254600
648.66467   1.00088670
648.68884   1.00994440
648.71313   1.00629020
648.73737   1.01072230
648.76160   1.01717210
648.78577   1.01791930
648.81000   1.01685630
648.83417   1.01722450
648.85840   1.03338900
648.88257   1.02041300
648.90680   1.02042420
648.93097   1.01848410
648.95514   1.01632470
648.97931   1.03024310
649.00342   1.02244940
649.02759   1.02166880
649.05176   1.00465960
649.07587   0.97924714
649.09998   1.00571640
649.12415   1.00866520
649.14825   1.01920200
649.17236   1.01536810
649.19647   1.01666100
649.22058   1.01804750
649.24469   1.01581080
649.26880   0.99501899
649.29285   0.98628254
649.31696   1.00097910
649.34100   0.99231557
649.36511   1.01408540
649.38916   1.01500350
649.41321   1.01966870
649.43726   1.01536200
649.46130   1.00388130
649.48529   1.01598600
649.50934   1.01417000
649.53333   1.00717390
649.55737   1.00272280
649.58142   0.98712766
649.60541   0.98298590
649.62939   0.99394072
649.65344   1.01311260
649.67737   1.00741440
649.70135   1.00759760
649.72534   1.00948180
649.74933   1.00687460
649.77325   0.99936310
649.79724   1.00274960
649.82117   1.01750850
649.84509   1.00878060
649.86902   1.00034250
649.89294   1.00125190
649.91687   1.00554510
649.94080   1.00826670
649.96472   1.00197810
649.98865   0.99979418
650.01257   0.99224771
650.03644   1.00281110
650.06030   0.99594397
650.08417   1.00002530
650.10803   0.99461467
650.13196   0.99775871
650.15582   0.99432286
650.17963   0.99457189
650.20349   0.99620764
650.22736   0.99599992
650.25116   0.99564942
650.27502   0.98791887
650.29883   0.99451560
650.32263   0.99090811
650.34644   0.99196934
650.37024   0.99277297
650.39404   0.98467686
650.41785   0.98825168
650.44165   0.99018293
650.46545   0.99069727
650.48920   0.99676751
650.51294   0.99217359
650.53674   1.00264530
650.56049   0.99746665
650.58423   0.99150360
650.60797   0.99645197
650.63171   0.99335460
650.65540   0.99139860
650.67914   0.99518657
650.70288   0.99977711
650.72662   0.99402026
650.75031   0.99417937
650.77405   0.99410212
650.79773   0.99984357
650.82141   0.98509480
650.84509   0.98762547
650.86877   0.97670354
650.89246   0.99074875
650.91608   0.99561075
650.93976   0.99719273
650.96338   0.99977042
650.98700   0.99874414
651.01062   1.00393120
651.03430   0.99788562
651.05792   1.00170760
651.08154   1.00979350
651.10516   1.01169750
651.12878   1.01518850
651.15234   1.01642250
651.17596   1.01169240
651.19958   1.00503820
651.22314   1.00671290
651.24670   1.00768010
651.27026   1.01659340
651.29382   1.01305680
651.31738   1.01850170
651.34094   1.01636140
651.36450   1.01147010
651.38806   1.01153130
651.41156   1.00518740
651.43512   1.01013550
651.45862   0.99765929
651.48212   0.97664232
651.50562   0.99725069
651.52917   1.00296910
651.55261   0.99642991
651.57611   0.99891306
651.59961   0.99606862
651.62311   0.98237422
651.64655   0.97097028
651.67004   0.95581146
651.69348   0.97777965
651.71692   0.98038928
651.74036   0.99213238
651.76379   1.00788480
651.78723   0.99756209
651.81067   1.00107120
651.83411   1.00608460
651.85754   1.00525660
651.88092   1.00530630
651.90430   1.01235360
651.92767   1.00037300
651.95105   0.99846909
651.97449   1.00657020
651.99786   1.01613790
652.02124   1.03116780
652.04456   1.03104150
652.06799   1.04008850
652.09131   1.03673720
652.11462   1.04441710
652.13800   1.04308180
652.16132   1.03889270
652.18469   1.02897480
652.20795   1.01737100
652.23132   1.01192010
652.25458   1.00572030
652.27789   1.00593190
652.30115   1.00670690
652.32446   1.00338050
652.34778   0.99511053
652.37103   0.98158363
652.39435   0.98556805
652.41760   0.98844170
652.44080   0.99041756
652.46411   0.99702728
652.48737   1.00458930
652.51062   1.00119520
652.53381   0.99518332
652.55701   1.00347590
652.58026   1.00136510
652.60345   0.99637070
652.62671   1.00028530
652.64990   1.00362290
652.67310   1.00237330
652.69629   1.00208550
652.71948   1.00107540
652.74261   1.00263350
652.76581   1.00042210
652.78894   1.00700770
652.81213   1.00235470
652.83533   1.00148230
652.85846   0.99429861
652.88159   1.00233370
652.90472   0.99906437
652.92786   0.99205671
652.95099   0.99766641
652.97406   0.99577698
652.99719   0.99489790
653.02032   0.99185505
653.04340   0.99493606
653.06653   0.99281507
653.08960   0.98968759
653.11267   0.99235532
653.13574   1.00160360
653.15881   0.99757898
653.18188   0.99134332
653.20496   0.99158924
653.22797   0.98387508
653.25104   0.98338080
653.27405   0.98872987
653.29706   1.00523620
653.32013   1.00058400
653.34314   0.99035365
653.36609   0.99511496
653.38910   0.99119885
653.41211   0.98337577
653.43512   0.99250289
653.45813   0.99298020
653.48108   0.99221043
653.50403   0.99802533
653.52704   0.99002867
653.54999   1.00190840
653.57294   0.99736765
653.59589   0.99853232
653.61884   1.00257180
653.64172   1.00052550
653.66467   0.99045201
653.68762   1.00075250
653.71057   1.00038290
653.73346   1.00369510
653.75635   0.99708259
653.77924   0.99835544
653.80212   0.99841775
653.82507   1.00733770
653.84790   0.99614197
653.87079   1.00105450
653.89368   0.99730197
653.91650   0.99873628
653.93939   1.00246210
653.96222   1.00286590
653.98505   0.99699672
654.00793   1.00346620
654.03076   0.99991828
654.05359   0.99576152
654.07635   1.00019720
654.09924   1.00414600
654.12201   1.00216080
654.14484   1.00353780
654.16760   1.00741160
654.19037   1.00630430
654.21320   0.98942482
654.23596   0.99340682
654.25867   0.99447217
654.28149   1.00006590
654.30426   0.99811779
654.32703   0.99987729
654.34973   0.99640036
654.37244   0.99055285
654.39520   0.98266434
654.41791   0.98825490
654.44061   0.99490757
654.46332   1.00553490
654.48608   1.01014220
654.50873   1.00947150
654.53143   1.01096920
654.55414   1.01566500
654.57678   1.00937340
654.59949   1.01073330
654.62219   1.01208050
654.64484   1.01111370
654.66748   1.01736020
654.69012   1.01133650
654.71277   1.02132630
654.73547   1.01502100
654.75806   1.01459250
654.78064   1.01281010
654.80334   1.00557830
654.82593   1.01043810
654.84851   1.00991180
654.87115   1.00698600
654.89368   1.01103250
654.91632   1.00974020
654.93890   1.02336290
654.96149   1.02919700
654.98401   1.03625340
655.00659   1.03408020
655.02917   1.02710310
655.05170   1.03489220
655.07428   1.04639130
655.09680   1.03712900
655.11932   1.05066330
655.14185   1.04594740
655.16437   1.05677250
655.18689   1.04607190
655.20941   1.07181180
655.23187   1.05038220
655.25439   1.05324410
655.27692   1.05933230
655.29938   1.06934300
655.32184   1.09372350
655.34436   1.10882520
655.36682   1.10226630
655.38928   1.12156200
655.41174   1.13142570
655.43414   1.14783710
655.45660   1.16193820
655.47900   1.18565100
655.50146   1.20511890
655.52386   1.20771930
655.54626   1.22997670
655.56873   1.24718410
655.59113   1.27267130
655.61346   1.29188650
655.63586   1.31672560
655.65826   1.34490950
655.68066   1.37462680
655.70300   1.40501960
655.72540   1.43513880
655.74774   1.47088310
655.77008   1.53833460
655.79242   1.58389990
655.81482   1.63831700
655.83710   1.69746500
655.85944   1.75455920
655.88177   1.83221390
655.90411   1.91465440
655.92639   1.98361540
655.94867   2.08305810
655.97101   2.17119070
655.99329   2.24801730
656.01556   2.31420520
656.03784   2.38679160
656.06012   2.44989020
656.08240   2.50736830
656.10461   2.55218520
656.12689   2.56972020
656.14911   2.55859340
656.17139   2.52599990
656.19360   2.46636490
656.21588   2.39752390
656.23810   2.34562360
656.26031   2.31245910
656.28253   2.29803880
656.30469   2.28762480
656.32690   2.27140170
656.34906   2.28513670
656.37128   2.28688310
656.39343   2.29379410
656.41565   2.31727320
656.43781   2.36293940
656.45996   2.43077110
656.48212   2.51969940
656.50427   2.56875390
656.52643   2.58172550
656.54852   2.56433390
656.57068   2.51959850
656.59277   2.46987960
656.61487   2.39879850
656.63702   2.32014970
656.65912   2.25188400
656.68121   2.16552030
656.70331   2.08121030
656.72540   1.99480040
656.74744   1.91835970
656.76953   1.83975210
656.79163   1.78900200
656.81366   1.71337530
656.83575   1.65682860
656.85779   1.59833400
656.87982   1.54370240
656.90186   1.49441860
656.92389   1.45398820
656.94592   1.41598990
656.96790   1.38405600
656.98993   1.35687680
657.01196   1.32038060
657.03394   1.29854170
657.05597   1.28275270
657.07794   1.24814740
657.09991   1.23743510
657.12189   1.22657770
657.14386   1.20669040
657.16583   1.17905000
657.18781   1.16404560
657.20972   1.12888780
657.23169   1.12607350
657.25360   1.11377350
657.27551   1.11268580
657.29749   1.10193090
657.31940   1.10417910
657.34131   1.08985190
657.36316   1.09052320
657.38513   1.06007150
657.40698   1.06319840
657.42883   1.04368380
657.45081   1.05643710
657.47266   1.02931900
657.49451   1.02038840
657.51636   1.01688290
657.53821   1.01857970
657.56006   1.03545680
657.58191   1.02490840
657.60376   1.02958960
657.62561   1.02897240
657.64740   1.02897870
657.66925   1.01895470
657.69104   1.03155000
657.71283   1.01576320
657.73468   1.01663930
657.75647   1.01771410
657.77820   1.01539300
657.79999   1.01175110
657.82178   1.00931420
657.84357   1.00676400
657.86536   1.00723910
657.88708   1.01008800
657.90881   1.00349130
657.93054   1.01113690
657.95227   0.99917198
657.97406   1.00575440
657.99573   1.00711460
658.01746   1.00027490
658.03918   0.99579986
658.06091   1.00016830
658.08264   1.00728260
658.10431   1.00686300
658.12604   1.00350240
658.14771   0.99950771
658.16937   1.00212950
658.19104   1.00483640
658.21271   1.00660580
658.23438   1.00618090
658.25598   1.00214650
658.27765   1.00570690
658.29926   1.00278960
658.32092   1.00301120
658.34253   1.00921400
658.36414   1.00174130
658.38580   0.99761424
658.40735   1.01225350
658.42902   1.01706200
658.45056   1.00619840
658.47217   1.00702230
658.49377   0.99689295
658.51532   0.99920927
658.53693   1.01107470
658.55847   1.00943600
658.58002   0.99989535
658.60162   1.00438200
658.62317   1.01944710
658.64465   1.00380840
658.66620   1.00542820
658.68774   1.01109720
658.70929   0.99585536
658.73077   1.01477880
658.75232   1.01173950
658.77380   1.00651540
658.79529   1.00666530
658.81677   1.00019630
658.83826   1.01407000
658.85974   1.00484470
658.88123   1.00510140
658.90271   1.00988560
658.92413   1.01561860
658.94556   1.01546590
658.96704   1.02473660
658.98846   1.02640950
659.00989   1.01988210
659.03137   1.01065810
659.05273   1.00876420
659.07416   1.01605230
659.09558   1.00422100
659.11700   1.00671930
659.13837   1.01244480
659.15979   1.00861320
659.18115   0.99768068
659.20251   1.00636570
659.22394   1.00205410
659.24524   1.00171460
659.26666   1.01574830
659.28796   0.99980769
659.30933   1.01136720
659.33069   1.00091470
659.35199   1.01084470
659.37335   0.99986262
659.39465   1.00171040
659.41595   1.00202060
659.43732   0.99255755
659.45862   0.99873141
659.47986   1.00377010
659.50116   0.99033698
659.52246   1.00772440
659.54376   1.00213530
659.56506   0.99108880
659.58630   1.00967460
659.60754   1.00692050
659.62878   1.01333520
659.65002   1.00604210
659.67126   0.99276179
659.69250   0.99138895
659.71375   1.00228770
659.73499   0.98533594
659.75623   0.99805254
659.77740   0.99800110
659.79865   0.98753122
659.81982   1.00735260
659.84100   0.95554729
659.86218   0.95476309
659.88336   0.95527504
