%\*l[nm]	Flux relative to continuum flux
648.25159   0.98784962
648.27600   0.98529524
648.30029   0.97519226
648.32458   0.97184129
648.34900   0.97145052
648.37329   0.97486482
648.39758   0.97599196
648.42194   0.98634376
648.44617   0.99047091
648.47052   0.99357441
648.49475   0.99199390
648.51910   0.99440161
648.54333   0.98682293
648.56763   0.99665466
648.59192   0.99488531
648.61615   0.99242258
648.64038   0.99240874
648.66467   0.98384801
648.68884   0.98802195
648.71313   0.98682558
648.73737   0.99456131
648.76160   0.99386673
648.78577   0.99436227
648.81000   0.99311758
648.83417   1.00043300
648.85840   1.00486450
648.88257   1.00427630
648.90680   1.00182120
648.93097   0.99982636
648.95514   1.01055190
648.97931   1.01246450
649.00342   1.01699660
649.02759   1.01081590
649.05176   0.99944964
649.07587   0.99767331
649.09998   1.00893080
649.12415   1.01418650
649.14825   1.02828910
649.17236   1.02985980
649.19647   1.02417620
649.22058   1.03108770
649.24469   1.02618350
649.26880   1.02145870
649.29285   1.00757060
649.31696   1.01430620
649.34100   1.01900250
649.36511   1.02358370
649.38916   1.03166020
649.41321   1.02854050
649.43726   1.03050260
649.46130   1.02258330
649.48529   1.02059330
649.50934   1.02578390
649.53333   1.01144220
649.55737   1.00653530
649.58142   0.99423458
649.60541   0.98874793
649.62939   0.99987289
649.65344   1.00460250
649.67737   1.00715550
649.70135   1.01132230
649.72534   1.00794380
649.74933   1.00579820
649.77325   1.00259740
649.79724   1.00344710
649.82117   1.00454960
649.84509   1.00636820
649.86902   1.00180520
649.89294   0.99822760
649.91687   0.99936392
649.94080   1.00094100
649.96472   0.99936812
649.98865   1.00153910
650.01257   0.99733393
650.03644   1.00689430
650.06030   1.00781330
650.08417   1.00479020
650.10803   0.98878494
650.13196   0.99473711
650.15582   1.00102070
650.17963   0.99494877
650.20349   0.99530681
650.22736   0.99471782
650.25116   0.99552082
650.27502   0.98840367
650.29883   0.99561158
650.32263   0.99584068
650.34644   0.99641711
650.37024   0.99015359
650.39404   0.99477584
650.41785   0.99849512
650.44165   0.99728943
650.46545   0.99149154
650.48920   0.99535422
650.51294   0.99583244
650.53674   1.00138310
650.56049   0.99669413
650.58423   0.99911865
650.60797   0.99882282
650.63171   0.99713322
650.65540   0.99524401
650.67914   0.99511423
650.70288   0.99040065
650.72662   0.99512525
650.75031   0.99931204
650.77405   0.98950832
650.79773   0.99564792
650.82141   0.99154700
650.84509   0.98590674
650.86877   0.98193617
650.89246   0.98977052
650.91608   0.99287963
650.93976   0.99109679
650.96338   0.99295154
650.98700   0.99862922
651.01062   0.99561429
651.03430   0.99676265
651.05792   0.99919282
651.08154   0.99489050
651.10516   0.99758933
651.12878   1.00255980
651.15234   0.99963721
651.17596   0.99400600
651.19958   0.99597660
651.22314   0.99711866
651.24670   0.99907189
651.27026   1.00672370
651.29382   1.01241090
651.31738   1.01332810
651.34094   1.02078140
651.36450   1.02664350
651.38806   1.03651590
651.41156   1.03954580
651.43512   1.04228670
651.45862   1.03584720
651.48212   1.03430690
651.50562   1.03787190
651.52917   1.04982300
651.55261   1.04495380
651.57611   1.04621220
651.59961   1.03984440
651.62311   1.03526300
651.64655   1.02186630
651.67004   1.01698420
651.69348   1.02527450
651.71692   1.04279680
651.74036   1.05095770
651.76379   1.05813120
651.78723   1.05492770
651.81067   1.05635210
651.83411   1.05116220
651.85754   1.04523930
651.88092   1.03950470
651.90430   1.02698180
651.92767   1.01512980
651.95105   1.00379000
651.97449   1.00823670
651.99786   1.01236150
652.02124   1.01412060
652.04456   1.00468740
652.06799   1.00128570
652.09131   0.99982484
652.11462   1.00166030
652.13800   1.00291690
652.16132   1.00185000
652.18469   0.99849771
652.20795   0.99437957
652.23132   0.99714341
652.25458   0.99855881
652.27789   0.99522093
652.30115   1.00105750
652.32446   0.99906585
652.34778   0.99086015
652.37103   0.99034535
652.39435   0.98664464
652.41760   0.99344106
652.44080   0.99853322
652.46411   1.00164950
652.48737   1.00223120
652.51062   1.00342230
652.53381   1.00423310
652.55701   0.99605248
652.58026   1.00248210
652.60345   0.99598725
652.62671   1.00317490
652.64990   0.99934824
652.67310   0.99999948
652.69629   0.99729306
652.71948   1.00578590
652.74261   1.00262830
652.76581   1.00095500
652.78894   0.99812941
652.81213   1.00052250
652.83533   1.00015730
652.85846   1.00068060
652.88159   0.99865622
652.90472   0.99640457
652.92786   1.00208280
652.95099   0.99972901
652.97406   0.99897672
652.99719   1.00155960
653.02032   0.99554585
653.04340   0.99594151
653.06653   0.99809543
653.08960   1.00179380
653.11267   0.99479863
653.13574   0.99611626
653.15881   0.99911603
653.18188   0.99446210
653.20496   0.99246820
653.22797   0.99048155
653.25104   0.98945842
653.27405   0.99535956
653.29706   1.00050310
653.32013   1.00017480
653.34314   1.00018210
653.36609   1.00249530
653.38910   0.99451236
653.41211   0.99745600
653.43512   0.99338461
653.45813   0.99728926
653.48108   0.99802088
653.50403   1.00547890
653.52704   1.00243170
653.54999   1.00693910
653.57294   0.99971671
653.59589   1.00125880
653.61884   1.00166890
653.64172   1.00131850
653.66467   1.00324110
653.68762   0.99975759
653.71057   1.00045890
653.73346   1.00428880
653.75635   1.00425000
653.77924   1.00271060
653.80212   1.00131540
653.82507   1.01027950
653.84790   1.00605950
653.87079   1.00331120
653.89368   1.00874150
653.91650   1.00558340
653.93939   0.99918733
653.96222   1.00188220
653.98505   1.00478640
654.00793   1.00142750
654.03076   1.00530120
654.05359   0.99934513
654.07635   1.00684780
654.09924   0.99871836
654.12201   1.00334160
654.14484   1.00935210
654.16760   1.00548700
654.19037   1.00505950
654.21320   1.00299830
654.23596   1.00185210
654.25867   1.00070710
654.28149   1.00462060
654.30426   1.00195050
654.32703   1.00271900
654.34973   0.99738396
654.37244   0.99173014
654.39520   0.98696309
654.41791   0.99168958
654.44061   0.99578254
654.46332   0.99715607
654.48608   1.00476790
654.50873   1.00445500
654.53143   1.00277150
654.55414   1.00627690
654.57678   1.00520700
654.59949   1.00636560
654.62219   1.00966610
654.64484   1.00534030
654.66748   1.00622330
654.69012   1.00913920
654.71277   1.00837080
654.73547   1.00614200
654.75806   1.00635810
654.78064   1.00594510
654.80334   1.00245450
654.82593   1.00432460
654.84851   1.00488290
654.87115   0.99948305
654.89368   1.00620620
654.91632   1.00853080
654.93890   1.01599050
654.96149   1.02126770
654.98401   1.02383490
655.00659   1.02543380
655.02917   1.02401640
655.05170   1.02928670
655.07428   1.03049230
655.09680   1.02101950
655.11932   1.02969610
655.14185   1.02742780
655.16437   1.03711580
655.18689   1.03697900
655.20941   1.03385320
655.23187   1.02913330
655.25439   1.03006070
655.27692   1.02790830
655.29938   1.03897960
655.32184   1.04468990
655.34436   1.04781230
655.36682   1.04925300
655.38928   1.05099220
655.41174   1.05255760
655.43414   1.06471120
655.45660   1.06952380
655.47900   1.07879330
655.50146   1.08457290
655.52386   1.09405390
655.54626   1.10279020
655.56873   1.11583970
655.59113   1.13357710
655.61346   1.14384940
655.63586   1.16220890
655.65826   1.17300060
655.68066   1.19896450
655.70300   1.21528400
655.72540   1.24300410
655.74774   1.27733680
655.77008   1.32003910
655.79242   1.36063820
655.81482   1.42311310
655.83710   1.47980430
655.85944   1.56598700
655.88177   1.64914500
655.90411   1.76142760
655.92639   1.87308820
655.94867   2.03305850
655.97101   2.21503640
655.99329   2.43826880
656.01556   2.67886840
656.03784   2.97751890
656.06012   3.30549400
656.08240   3.66818940
656.10461   4.06436680
656.12689   4.43887270
656.14911   4.79721890
656.17139   5.11268510
656.19360   5.44837070
656.21588   5.83021290
656.23810   6.23651850
656.26031   6.65873580
656.28253   6.95371170
656.30469   7.07949030
656.32690   7.00077980
656.34906   6.72442780
656.37128   6.31456360
656.39343   5.88315590
656.41565   5.47710730
656.43781   5.16103350
656.45996   4.84023710
656.48212   4.48782760
656.50427   4.12017080
656.52643   3.74170800
656.54852   3.36203300
656.57068   3.03325060
656.59277   2.75025310
656.61487   2.48060260
656.63702   2.25679170
656.65912   2.06697850
656.68121   1.91805300
656.70331   1.78737640
656.72540   1.68124120
656.74744   1.58000480
656.76953   1.51802170
656.79163   1.43996910
656.81366   1.38682920
656.83575   1.33852100
656.85779   1.30338960
656.87982   1.26155890
656.90186   1.23291490
656.92389   1.21084460
656.94592   1.18895710
656.96790   1.16211770
656.98993   1.15215290
657.01196   1.14094770
657.03394   1.13087880
657.05597   1.11198320
657.07794   1.10008730
657.09991   1.09227220
657.12189   1.08176950
657.14386   1.08312890
657.16583   1.06866380
657.18781   1.06943820
657.20972   1.05981640
657.23169   1.05541330
657.25360   1.05768090
657.27551   1.06104790
657.29749   1.05644220
657.31940   1.05626590
657.34131   1.04761140
657.36316   1.04303020
657.38513   1.04646400
657.40698   1.04024620
657.42883   1.03892170
657.45081   1.03163210
657.47266   1.02311620
657.49451   1.01713310
657.51636   1.01647110
657.53821   1.02780310
657.56006   1.02212750
657.58191   1.01988620
657.60376   1.01664440
657.62561   1.01987950
657.64740   1.01609170
657.66925   1.01474200
657.69104   1.01626970
657.71283   1.01019930
657.73468   1.01264630
657.75647   1.01261210
657.77820   1.00494980
657.79999   1.00011070
657.82178   1.00273530
657.84357   0.99891688
657.86536   1.00555900
657.88708   0.99718324
657.90881   0.99851091
657.93054   0.99515149
657.95227   1.00458450
657.97406   0.99935909
657.99573   1.00229410
658.01746   1.00610860
658.03918   1.00341290
658.06091   0.99697382
658.08264   0.99693234
658.10431   1.00101810
658.12604   0.99437392
658.14771   0.99949758
658.16937   1.00197210
658.19104   0.99887137
658.21271   1.00878280
658.23438   1.00414500
658.25598   1.00913040
658.27765   1.00807250
658.29926   0.99926123
658.32092   1.00534340
658.34253   1.01006010
658.36414   0.99852335
658.38580   1.00584900
658.40735   1.01352080
658.42902   1.01400080
658.45056   1.01707820
658.47217   1.02027990
658.49377   1.01524560
658.51532   1.02308140
658.53693   1.01579550
658.55847   1.02462860
658.58002   1.02256540
658.60162   1.02307170
658.62317   1.02680060
658.64465   1.02520630
658.66620   1.01519650
658.68774   1.01729350
658.70929   1.02795390
658.73077   1.01853520
658.75232   1.02453370
658.77380   1.02998840
658.79529   1.02438920
658.81677   1.02685630
658.83826   1.02438530
658.85974   1.02842170
658.88123   1.01907580
658.90271   1.02280550
658.92413   1.02001780
658.94556   1.02078820
658.96704   1.02161670
658.98846   1.02654390
659.00989   1.01989570
659.03137   1.02553470
659.05273   1.02096080
659.07416   1.02193210
659.09558   1.01431490
659.11700   1.01701680
659.13837   1.01130010
659.15979   1.00728140
659.18115   0.99878983
659.20251   1.01149510
659.22394   1.00541060
659.24524   1.00859370
659.26666   1.00743850
659.28796   1.00202820
659.30933   1.00991670
659.33069   1.00023150
659.35199   1.00663180
659.37335   1.01737870
659.39465   1.00347100
659.41595   1.00374710
659.43732   1.00031710
659.45862   1.00422550
659.47986   1.00857800
659.50116   1.01184330
659.52246   1.00993430
659.54376   1.00878830
659.56506   1.00322150
659.58630   1.00172700
659.60754   1.00630990
659.62878   1.00886460
659.65002   0.99846671
659.67126   0.98404178
659.69250   0.99602667
659.71375   0.99677084
659.73499   0.99447249
659.75623   1.00072860
659.77740   0.99894341
659.79865   0.99982098
659.81982   0.99726494
659.84100   0.94564991
659.86218   0.94564509
659.88336   0.94581736
